* Measurement data measured by REW V5.20.3
* Source: Input device not selected, no input selected, R, volume: 0,000. Timing signal peak level -38,0 dBFS, measurement signal peak level -27,0 dBFS
* Format: 256k Log Swept Sine, 1 sweep at -12,0 dBFS using an acoustic timing reference
* Dated: 13.09.2022 17:18:35
* REW Settings:
*  C-weighting compensation: Off
*  Target level: 75.0 dB
* Note: ; Delay 0,7512 ms (258 mm, 10,14 in) using estimated IR delay relative to Acoustic reference on  R with no timing offset
* Measurement: Sep 133
* Smoothing: 1/48 octave
* Frequency Step: 1/96 octave
* Start Frequency: 20.145 Hz
*
* Freq(Hz) SPL(dB) Phase(degrees)
20.144928 34.737 84.9049
20.290907 37.307 88.6716
20.437943 39.896 93.4663
20.586044 42.060 96.1778
20.735220 43.404 97.1171
20.885475 44.375 97.9113
21.036821 45.005 98.8786
21.189262 45.311 100.1003
21.342808 45.382 102.1628
21.497467 45.189 104.9393
21.653246 44.850 108.8540
21.810154 44.340 114.0610
21.968201 43.767 120.1887
22.127390 43.215 127.3323
22.287735 42.646 135.0253
22.449242 42.093 142.1885
22.611917 41.533 149.0571
22.775772 40.751 155.3423
22.940815 39.776 160.7029
23.107054 38.371 167.7001
23.274498 36.349 175.6181
23.443153 34.151 -170.7377
23.613033 31.680 -144.9272
23.784142 29.744 -116.0758
23.956491 29.862 -93.2489
24.130091 30.837 -74.0603
24.304947 30.860 -61.8944
24.481071 30.373 -52.9676
24.658470 29.107 -34.2423
24.837156 27.531 -8.8224
25.017136 28.550 18.8845
25.198421 31.531 47.5897
25.381020 33.901 61.1683
25.564941 35.859 62.0458
25.750195 37.051 59.7047
25.936790 37.530 53.4677
26.124741 37.467 45.3557
26.314051 36.846 34.7590
26.504732 35.653 20.6203
26.696796 34.015 2.0983
26.890253 32.170 -25.0166
27.085112 30.630 -57.4925
27.281382 30.775 -91.8869
27.479073 31.656 -123.7417
27.678198 32.776 -146.5109
27.878765 33.559 -163.7611
28.080786 33.635 -176.5804
28.284271 32.865 176.7710
28.489231 31.198 176.7041
28.695675 30.195 -163.8539
28.903616 30.143 -131.6696
29.113064 32.821 -111.1716
29.324028 36.217 -99.5062
29.536524 38.520 -99.7667
29.750557 40.106 -104.4376
29.966141 40.936 -111.8210
30.183289 41.134 -120.5227
30.402010 40.683 -131.3047
30.622314 39.538 -144.6797
30.844217 37.825 -163.9637
31.067726 35.614 169.4966
31.292856 34.518 135.5907
31.519617 34.410 101.4792
31.748020 35.463 78.2192
31.978081 36.184 63.3362
32.209808 36.309 56.4286
32.443211 35.798 55.3936
32.678310 35.064 59.5210
32.915108 34.332 67.9963
33.153625 34.099 76.1734
33.393871 34.110 81.6424
33.635857 34.197 82.0542
33.879597 34.070 77.6081
34.125103 33.899 69.2399
34.372387 33.831 57.8200
34.621464 34.230 45.8401
34.872345 34.982 34.5378
35.125042 35.978 24.9748
35.379574 36.811 16.9310
35.635948 37.242 10.0038
35.894180 37.067 4.5075
36.154285 36.007 1.3581
36.416275 33.803 7.9864
36.680161 31.905 30.9550
36.945961 32.531 77.5123
37.213688 35.201 97.3596
37.483353 37.646 100.0821
37.754974 38.834 91.6421
38.028561 38.955 78.2841
38.304131 38.161 60.6823
38.581699 36.551 37.7907
38.861279 34.269 8.4854
39.142883 31.530 -28.4275
39.426529 28.364 -74.4999
39.712231 25.898 -137.5601
40.000000 25.624 153.9956
40.289856 28.419 101.7985
40.581814 30.283 73.0961
40.875885 30.549 58.3269
41.172089 29.041 59.1205
41.470440 26.532 82.2245
41.770950 24.701 128.6227
42.073643 26.033 161.6756
42.378525 27.350 -172.5025
42.685616 29.497 -141.9964
42.994934 32.630 -112.1101
43.306492 36.183 -90.3309
43.620308 39.419 -77.0113
43.936401 42.644 -67.0663
44.254780 46.068 -60.2228
44.575470 49.459 -58.9740
44.898483 52.598 -63.8332
45.223835 55.377 -73.7546
45.551544 57.771 -87.1310
45.881630 59.796 -102.5565
46.214108 61.478 -119.0683
46.548996 62.853 -136.0583
46.886307 63.963 -153.1115
47.226067 64.860 -169.8735
47.568283 65.601 174.0180
47.912983 66.239 158.9029
48.260181 66.817 145.0184
48.609894 67.363 132.4138
48.962143 67.892 120.9296
49.316940 68.408 110.2624
49.674313 68.911 100.0807
50.034271 69.406 90.1347
50.396843 69.901 80.3112
50.762039 70.406 70.6301
51.129883 70.923 61.1991
51.500389 71.446 52.1534
51.873581 71.965 43.5916
52.249481 72.478 35.5153
52.628101 72.996 27.7811
53.009464 73.539 20.1023
53.393593 74.116 12.1393
53.780506 74.718 3.6617
54.170223 75.321 -5.3170
54.562763 75.902 -14.5399
54.958145 76.448 -23.6550
55.356396 76.966 -32.4170
55.757530 77.462 -40.8138
56.161572 77.935 -49.0287
56.568542 78.363 -57.2319
56.978462 78.728 -65.3563
57.391350 79.045 -73.0449
57.807232 79.388 -79.8700
58.226128 79.883 -85.7466
58.648056 80.634 -91.2270
59.073048 81.631 -97.3398
59.501114 82.747 -105.0291
59.932281 83.826 -114.6228
60.366577 84.755 -125.7823
60.804020 85.488 -137.7714
61.244629 86.039 -149.7888
61.688435 86.471 -161.2012
62.135452 86.881 -171.7994
62.585712 87.350 178.0856
63.039234 87.892 167.8525
63.496040 88.460 157.1272
63.956161 89.016 146.0161
64.419617 89.593 134.8704
64.886421 90.288 123.6379
65.356621 91.152 111.5262
65.830215 92.099 97.3170
66.307251 92.934 80.2563
66.787743 93.478 60.4835
67.271713 93.601 38.8543
67.759193 93.233 16.6535
68.250206 92.350 -4.7134
68.744774 90.985 -23.7961
69.242928 89.267 -39.5457
69.744690 87.420 -52.1238
70.250084 85.671 -63.1215
70.759148 84.016 -74.1295
71.271896 82.212 -84.8468
71.788361 80.028 -92.8734
72.308571 77.479 -95.6387
72.832550 74.897 -92.6205
73.360321 72.786 -85.3933
73.891922 71.585 -75.4846
74.427376 71.640 -65.5507
74.966705 72.617 -59.4188
75.509949 73.721 -58.4244
76.057121 74.640 -60.7017
76.608261 75.441 -64.2321
77.163399 76.236 -68.4445
77.722557 77.052 -73.3415
78.285767 77.889 -78.7853
78.853058 78.775 -84.6276
79.424461 79.734 -91.0159
80.000000 80.748 -98.2587
80.579712 81.793 -106.5279
81.163628 82.877 -115.9473
81.751770 84.005 -126.9551
82.344177 85.109 -140.2887
82.940880 86.026 -156.5049
83.541901 86.583 -175.3521
84.147285 86.653 164.1990
84.757050 86.193 143.7087
85.371231 85.245 124.6731
85.989868 83.932 108.0775
86.612984 82.434 93.8749
87.240616 80.879 81.1859
87.872803 79.286 69.0791
88.509560 77.601 56.9639
89.150940 75.758 44.1721
89.796967 73.653 29.2828
90.447670 71.113 9.1971
91.103088 68.060 -22.1946
91.763260 65.766 -69.4854
92.428215 67.066 -122.2137
93.097992 70.167 -163.6819
93.772614 72.757 168.0990
94.452133 74.617 147.5073
95.136566 75.925 130.8911
95.825966 76.861 116.6088
96.520363 77.541 103.7791
97.219788 78.028 91.9368
97.924286 78.368 80.8804
98.633881 78.600 70.5298
99.348625 78.754 60.8633
100.068542 78.848 51.7838
100.793686 78.881 43.0369
101.524078 78.846 34.5298
102.259766 78.785 26.6335
103.000778 78.801 19.7046
103.747162 78.943 13.3761
104.498962 79.146 6.8428
105.256203 79.341 -0.1750
106.018929 79.583 -7.1924
106.787186 80.004 -13.8093
107.561012 80.649 -20.6938
108.340446 81.404 -29.3293
109.125526 82.102 -40.6204
109.916290 82.629 -54.0853
110.712791 82.919 -68.4531
111.515060 82.952 -82.7189
112.323143 82.770 -96.5635
113.137085 82.450 -109.9780
113.956924 82.041 -122.8101
114.782700 81.560 -134.7690
115.614464 81.051 -145.7207
116.452255 80.619 -155.8811
117.296112 80.341 -165.8258
118.146095 80.184 -176.2910
119.002228 80.034 172.3267
119.864563 79.766 160.4724
120.733154 79.318 149.4456
121.608040 78.804 140.6746
122.489258 78.622 134.1414
123.376869 79.113 127.5306
124.270905 80.028 118.1671
125.171425 80.894 105.4723
126.078468 81.499 90.6426
126.992081 81.873 75.0139
127.912323 82.094 59.1593
128.839233 82.135 43.0770
129.772842 81.913 27.0787
130.713242 81.398 12.0083
131.660431 80.618 -1.3367
132.614502 79.611 -12.4098
133.575485 78.455 -20.3774
134.543427 77.393 -24.1133
135.518387 76.934 -24.1226
136.500412 77.393 -24.0840
137.489548 78.306 -27.7881
138.485855 79.105 -35.3162
139.489380 79.622 -44.3461
140.500168 79.933 -53.2402
141.518295 80.125 -61.6398
142.543793 80.261 -69.3765
143.576721 80.418 -76.3291
144.617142 80.698 -82.7502
145.665100 81.184 -89.5603
146.720642 81.755 -98.1445
147.783844 82.094 -108.7319
148.854752 82.036 -119.4243
149.933411 81.756 -128.0054
151.019897 81.588 -134.4670
152.114243 81.690 -140.6558
153.216522 81.997 -148.1494
154.326797 82.315 -157.4380
155.445114 82.424 -168.2065
156.571533 82.201 -179.4966
157.706116 81.643 170.2559
158.848923 80.852 162.3516
160.000000 80.033 157.0042
161.159424 79.442 153.5161
162.327255 79.226 150.5913
163.503540 79.325 146.7100
164.688354 79.540 140.9189
165.881760 79.683 133.4414
167.083801 79.677 124.7686
168.294571 79.442 115.2461
169.514099 78.870 105.9409
170.742462 77.976 98.5391
171.979736 76.965 93.8989
173.225967 76.073 91.4651
174.481232 75.420 90.1072
175.745605 74.962 88.8044
177.019119 74.563 87.6943
178.301880 74.285 87.9460
179.593933 74.415 89.6885
180.895340 75.125 91.0295
182.206177 76.221 89.5469
183.526520 77.345 84.5168
184.856430 78.339 76.9983
186.195984 79.278 67.6260
187.545227 80.114 55.5234
188.904266 80.592 40.3054
190.273132 80.556 23.3228
191.651932 80.011 6.1201
193.040726 79.003 -10.6475
194.439575 77.524 -26.6204
195.848572 75.441 -39.7932
197.267761 72.582 -44.7717
198.697250 69.231 -37.9253
200.137085 66.861 -27.5532
201.587372 65.915 -23.8811
203.048157 64.679 -21.1536
204.519531 62.933 -4.6499
206.001556 63.604 26.1353
207.494324 67.031 48.9287
208.997925 70.268 53.0469
210.512405 72.754 45.8516
212.037857 74.611 34.0845
213.574371 75.985 20.9172
215.122025 77.039 7.4404
216.680893 77.901 -6.3101
218.251053 78.553 -20.8721
219.832581 78.899 -36.4814
221.425583 78.874 -52.6145
223.030121 78.444 -68.5134
224.646286 77.558 -82.9575
226.274170 76.197 -93.7603
227.913849 74.552 -98.1025
229.565399 73.572 -95.8623
231.228928 74.275 -94.3027
232.904510 75.576 -101.5896
234.592224 76.314 -117.5767
236.292191 76.262 -137.8643
238.004456 75.392 -158.6914
239.729126 73.632 -175.9995
241.466309 71.061 174.7700
243.216080 68.344 174.3462
244.978516 67.279 176.7178
246.753738 68.709 170.7952
248.541809 70.787 147.1282
250.342850 72.352 106.0095
252.156937 73.391 56.1501
253.984161 74.208 7.2893
255.824646 74.895 -34.7788
257.678467 75.492 -68.2998
259.545685 76.183 -95.1309
261.426483 76.957 -119.3740
263.320862 77.480 -144.0173
265.229004 77.492 -168.9685
267.150970 76.989 167.1421
269.086853 76.033 145.4722
271.036774 74.756 127.2229
273.000824 73.597 112.2534
274.979095 73.291 96.6450
276.971710 73.871 73.8416
278.978760 74.601 40.5640
281.000336 75.079 -2.1440
283.036591 75.166 -51.3062
285.087585 74.823 -103.5410
287.153442 73.981 -158.8142
289.234283 72.433 137.6631
291.330200 70.423 60.6558
293.441284 70.188 -23.7729
295.567688 72.139 -99.6650
297.709503 73.400 -159.5186
299.866821 72.970 159.9333
302.039795 71.526 144.8914
304.228485 71.776 144.7036
306.433044 73.828 135.8643
308.653595 75.426 112.7480
310.890228 75.678 83.4233
313.143066 74.555 62.1958
315.412231 73.681 52.9077
317.697845 74.381 37.9106
320.000000 75.003 8.8198
322.318848 74.875 -29.6804
324.654510 74.212 -78.8931
327.007080 72.943 -144.8711
329.376709 70.841 131.1870
331.763519 68.066 36.5996
334.167603 65.560 -55.3594
336.589142 65.007 -132.7285
339.028198 66.140 168.0415
341.484924 67.142 124.0762
343.959473 67.506 92.5820
346.451935 67.457 71.0073
348.962463 67.479 58.6675
351.491211 68.614 52.3809
354.038239 70.427 42.0991
356.603760 71.839 24.4321
359.187866 72.693 2.3350
361.790680 72.808 -22.6294
364.412354 71.846 -46.0596
367.053040 69.757 -59.8340
369.712860 67.284 -58.0859
372.391968 66.964 -46.2261
375.090454 69.016 -42.2036
377.808533 70.582 -53.7520
380.546265 71.237 -69.9937
383.303864 71.889 -83.8892
386.081451 72.776 -99.5723
388.879150 73.227 -120.0962
391.697144 72.878 -142.0474
394.535522 71.950 -161.9839
397.394501 70.796 179.0176
400.274170 69.243 160.8237
403.174744 66.888 149.9995
406.096313 64.347 143.8691
409.039062 63.020 109.1069
412.003113 62.473 22.2939
414.988647 63.525 -84.6250
417.995850 64.950 -162.2397
421.024811 64.887 154.7275
424.075714 63.374 137.8906
427.148743 62.418 135.8481
430.244049 63.042 126.8296
433.361786 62.979 106.5879
436.502106 61.098 96.9102
439.665161 58.217 113.4731
442.851166 58.023 135.4941
446.060242 61.342 145.9468
449.292572 64.628 139.5874
452.548340 66.132 115.4365
455.827698 66.034 90.2188
459.130798 66.392 72.0337
462.457855 67.820 41.6602
465.809021 68.512 -15.8257
469.184448 67.751 -95.3462
472.584381 66.424 -176.7905
476.008911 66.106 116.7949
479.458252 66.051 70.2656
482.932617 66.079 43.6748
486.432159 67.224 25.6875
489.957031 68.941 5.8418
493.507477 70.874 -16.8027
497.083618 72.613 -44.8330
500.685699 73.711 -78.1572
504.313873 74.256 -113.6460
507.968323 74.059 -149.9761
511.649292 72.681 -179.7344
515.356934 70.589 165.9819
519.091370 69.796 156.5381
522.852966 69.967 138.1025
526.641724 69.400 115.7168
530.458008 67.874 99.6348
534.301941 66.060 99.0122
538.173706 66.243 110.1357
542.073547 68.105 110.4512
546.001648 69.585 98.9531
549.958191 71.477 88.0000
553.943420 73.509 70.3018
557.957520 74.057 40.8516
562.000671 72.644 15.6367
566.073181 69.887 9.1543
570.175171 68.049 14.1890
574.306885 68.691 14.8408
578.468567 70.110 5.2427
582.660400 71.162 -16.4805
586.882568 71.362 -57.4961
591.135376 70.428 -126.4893
595.419006 70.238 143.9204
599.733643 72.058 62.8066
604.079590 73.649 8.1274
608.456970 74.386 -26.9395
612.866089 74.082 -51.0825
617.307190 73.207 -60.6934
621.780457 73.844 -62.6411
626.286133 75.298 -74.4937
630.824463 76.088 -95.5439
635.395691 76.158 -119.3740
640.000000 75.436 -142.9180
644.637695 73.986 -163.0112
649.309021 72.238 179.3838
654.014160 70.522 157.1147
658.753418 68.619 114.4761
663.527039 66.000 33.1099
668.335205 64.440 -89.8750
673.178284 64.906 126.4883
678.056396 66.519 -14.7339
682.969849 68.244 -117.4478
687.918945 68.967 -173.3223
692.903870 69.384 153.0288
697.924927 69.696 115.9546
702.982422 69.242 61.5762
708.076477 68.083 -13.1606
713.207520 67.631 -98.4463
718.375732 68.089 -176.4517
723.581360 67.895 115.7612
728.824707 66.845 37.5830
734.106079 67.358 -78.6865
739.425720 69.846 152.9214
744.783936 71.541 60.0874
750.180908 71.508 4.5488
755.617065 70.482 -16.9692
761.092529 71.231 -28.5127
766.607727 72.693 -53.7910
772.162903 73.458 -84.1240
777.758301 73.890 -112.8975
783.394287 73.845 -141.5527
789.071045 72.997 -168.0332
794.789001 71.064 176.1543
800.548340 69.044 176.1309
806.349487 68.983 176.4629
812.192627 69.335 169.2100
818.078125 69.589 166.6035
824.006226 70.971 165.6963
829.977295 72.545 156.3252
835.991699 73.689 141.0908
842.049622 74.152 124.4590
848.151428 74.568 111.3008
854.297485 75.505 95.1016
860.488098 75.540 71.7578
866.723572 73.809 58.4121
873.004211 71.892 61.2832
879.330322 71.917 60.4463
885.702332 72.619 50.5586
892.120483 73.001 35.6924
898.585144 72.787 17.9990
905.096680 71.550 3.8203
911.655396 70.003 3.7871
918.261597 70.612 8.2803
924.915710 72.065 -3.6367
931.618042 72.886 -31.7217
938.368896 72.696 -77.2314
945.168762 71.008 -138.9199
952.017822 68.962 152.0479
958.916504 68.830 87.4980
965.865234 69.523 38.6416
972.864319 69.507 8.9590
979.914062 69.542 -4.1621
987.014954 70.421 -14.5273
994.167236 70.900 -28.9863
1001.371399 70.683 -40.2588
1008.627747 70.868 -49.1182
1015.936646 71.117 -61.6016
1023.298584 70.694 -73.5469
1030.713867 70.178 -80.3311
1038.182739 69.864 -88.1338
1045.705933 69.001 -89.8164
1053.283447 69.863 -82.5625
1060.916016 72.384 -84.6084
1068.603882 73.784 -103.3242
1076.347412 73.499 -125.1133
1084.147095 72.692 -137.6836
1092.003296 73.283 -148.2832
1099.916382 73.926 -170.3369
1107.886841 72.340 176.1572
1115.915039 69.929 -164.8691
1124.001343 70.285 -151.4014
1132.146362 71.301 -160.8262
1140.350342 72.263 -176.4160
1148.613770 72.518 164.2480
1156.937134 71.871 147.3848
1165.320801 70.777 139.5176
1173.765137 71.227 136.4199
1182.270752 72.820 114.2256
1190.838013 72.854 53.0615
1199.467285 70.669 -51.4131
1208.159180 67.831 -157.1562
1216.913940 68.730 145.5928
1225.732178 71.260 113.7725
1234.614380 72.531 76.5957
1243.560913 72.433 24.5977
1252.572266 71.511 -52.0098
1261.648926 70.824 -149.1055
1270.791382 70.543 127.4053
1280.000000 70.120 81.5547
1289.275391 70.277 73.1133
1298.618042 72.011 70.1924
1308.028320 72.924 48.5254
1317.506836 72.411 31.4854
1327.054077 73.327 27.7725
1336.670410 75.307 13.7109
1346.356567 75.370 -11.0459
1356.112793 74.052 -22.8096
1365.939697 73.962 -29.5811
1375.837891 75.077 -41.1035
1385.807739 76.327 -58.8994
1395.849854 77.100 -82.6406
1405.964844 77.437 -112.1660
1416.152954 77.038 -156.3223
1426.415039 74.933 129.3008
1436.751465 72.193 18.7266
1447.162720 72.545 -83.6270
1457.649414 74.485 -141.6582
1468.212158 76.317 177.6572
1478.851440 76.554 118.7734
1489.567871 74.567 23.0664
1500.361816 71.691 -111.1953
1511.234131 70.255 121.2637
1522.185059 68.957 20.8809
1533.215454 69.127 -77.2607
1544.325806 71.476 -161.4121
1555.516602 74.521 144.1611
1566.788574 76.474 94.2012
1578.142090 76.701 38.9268
1589.578003 75.105 -19.5723
1601.096680 71.918 -90.4062
1612.698975 69.279 162.0752
1624.385254 69.051 45.1406
1636.156250 69.452 -51.0371
1648.012451 69.682 -165.8887
1659.954590 71.255 40.4980
1671.983398 72.853 -90.3115
1684.099243 73.714 -177.7910
1696.302856 73.563 80.1396
1708.594971 71.847 -66.5605
1720.976196 71.787 166.5801
1733.447144 74.049 94.9473
1746.008423 75.166 23.3477
1758.660645 74.215 -88.7598
1771.404663 72.983 130.8311
1784.240967 73.560 10.5469
1797.170288 73.418 -101.9980
1810.193359 71.356 121.8750
1823.310791 68.592 -11.6562
1836.523193 68.550 -146.2607
1849.831421 69.724 33.7402
1863.236084 68.937 176.2959
1876.737793 66.826 -66.1162
1890.337524 66.073 4.1904
1904.035645 65.717 12.1260
1917.833008 66.570 6.2803
1931.730469 68.516 88.8018
1945.728638 69.583 -47.0996
1959.828125 70.560 -108.9219
1974.029907 71.485 173.9258
1988.334473 70.710 50.2168
2002.742798 69.388 -104.4170
2017.255493 70.052 72.6318
2031.873291 70.452 -73.3828
2046.597168 70.406 -148.6191
2061.427734 70.541 133.8770
2076.365479 71.165 21.3359
2091.411865 71.837 -85.1719
2106.566895 71.081 -137.3359
2121.832031 70.393 -160.3438
2137.207764 70.823 166.4004
2152.694824 71.955 99.5215
2168.294189 74.660 -3.6328
2184.006592 76.955 -113.6250
2199.832764 76.966 169.6641
2215.773682 75.460 131.0098
2231.830078 73.680 121.9180
2248.002686 73.439 111.4570
2264.292725 73.365 68.6895
2280.700684 72.013 -33.5840
2297.227539 70.545 135.4141
2313.874268 71.437 -69.7773
2330.641602 73.218 157.7363
2347.530273 73.604 83.9453
2364.541504 73.532 11.2500
2381.676025 73.184 -116.1719
2398.934570 73.013 57.9863
2416.318359 74.385 -135.2051
2433.827881 74.988 100.9785
2451.464355 74.519 56.8574
2469.228760 75.300 38.0098
2487.121826 76.008 11.2578
2505.144531 75.548 -20.8770
2523.297852 74.185 -57.2812
2541.582764 72.038 -102.5020
2560.000000 70.207 -166.4492
2578.550781 71.214 130.4414
2597.236084 74.939 83.6309
2616.056641 78.038 38.9922
2635.013672 79.887 -9.0430
2654.108154 79.421 -53.3398
2673.340820 77.573 -84.1543
2692.713135 76.806 -144.9492
2712.225586 75.456 50.6680
2731.879395 72.668 115.3398
2751.675781 71.270 119.3457
2771.615479 72.054 145.4805
2791.699707 72.199 -138.9609
2811.929688 72.632 6.8711
2832.305908 73.484 -115.1289
2852.830078 73.815 177.7676
2873.502930 74.124 116.8730
2894.325439 74.255 34.7500
2915.298828 74.078 -75.3770
2936.424316 74.238 161.0059
2957.702881 74.742 40.3984
2979.135742 75.416 -87.3066
3000.723633 76.125 124.5605
3022.468262 76.662 -4.9141
3044.370117 75.828 -90.0664
3066.430908 75.108 -175.1328
3088.651611 74.049 50.3672
3111.033203 72.236 -72.0273
3133.577148 71.439 -134.0508
3156.284180 71.516 179.8242
3179.156006 71.671 88.0742
3202.193359 73.044 -65.0957
3225.397949 74.636 104.8086
3248.770508 75.385 -74.2207
3272.312500 75.972 -163.2617
3296.024902 76.588 153.3848
3319.909180 75.019 116.0566
3343.966797 71.324 97.8203
3368.198486 69.158 44.9961
3392.605713 71.637 -86.1523
3417.189941 73.665 131.4648
3441.952393 73.798 -5.8125
3466.894287 74.798 -141.5371
3492.016846 76.265 129.8379
3517.321289 76.257 86.4609
3542.809326 74.937 70.2422
3568.481934 75.207 50.7109
3594.340576 75.117 3.0781
3620.386719 72.988 -85.1191
3646.621582 70.310 104.7773
3673.046387 69.810 -118.0605
3699.662842 70.452 64.8125
3726.472168 70.977 -120.6074
3753.475586 71.579 -13.9336
3780.675049 72.375 121.0762
3808.071289 73.566 -1.3945
3835.666016 74.080 -85.5039
3863.460938 72.742 167.3438
3891.457275 73.488 4.6035
3919.656250 76.834 -179.4688
3948.059814 79.390 52.8008
3976.668945 79.850 -34.1719
4005.485596 78.101 -106.6309
4034.510986 75.079 -175.4980
4063.746582 72.593 118.6797
4093.194336 73.710 54.0078
4122.855469 74.912 -17.0742
4152.730957 74.495 -97.4316
4182.823730 72.783 118.1250
4213.133789 71.130 177.1113
4243.664062 71.265 113.7832
4274.415527 71.782 39.9902
4305.389648 72.790 41.6914
4336.588379 73.660 137.2207
4368.013184 73.937 -117.0000
4399.665527 73.518 32.5254
4431.547363 73.954 -82.8574
4463.660156 73.875 -138.8086
4496.005371 73.084 162.8340
4528.585449 72.234 47.0176
4561.401367 72.157 -144.9375
4594.455078 71.669 3.5371
4627.748535 71.773 -136.0918
4661.283203 72.853 160.3477
4695.060547 71.915 91.9277
4729.083008 69.202 -29.5820
4763.352051 67.649 165.2578
4797.869141 67.106 0.8906
4832.636719 66.650 -153.7676
4867.655762 66.617 109.3262
4902.928711 67.473 17.9805
4938.457520 68.877 -126.5176
4974.243652 71.177 100.5273
5010.289062 72.243 -6.5156
5046.595703 71.999 -119.1016
5083.165527 71.816 60.0703
5120.000000 71.217 128.8691
5157.101562 71.247 -133.8320
5194.472168 71.240 81.9023
5232.113281 70.803 -44.8125
5270.027344 72.241 169.9219
5308.216309 74.749 75.7969
5346.681641 76.544 13.3555
5385.426270 76.800 -67.1055
5424.451172 75.634 -174.6602
5463.758789 74.920 85.2930
5503.351562 76.297 -4.2656
5543.230957 76.525 -135.1289
5583.399414 74.562 -3.2031
5623.859375 72.838 49.3711
5664.611816 73.583 127.5000
5705.660156 74.805 -36.3477
5747.005859 75.440 -144.0391
5788.650879 75.478 70.2422
5830.597656 76.025 -99.6094
5872.848633 76.448 80.4336
5915.405762 76.400 -149.7266
5958.271484 77.332 -33.1367
6001.447266 78.303 110.8359
6044.936523 78.089 -117.5547
6088.740234 77.084 3.0039
6132.861816 75.558 143.2930
6177.303223 74.230 -88.9219
6222.066406 73.855 51.7031
6267.154297 72.680 152.0625
6312.568359 72.995 150.0898
6358.312012 75.326 -170.2344
6404.386719 76.047 15.8711
6450.795898 74.902 -99.8867
6497.541016 73.428 63.1445
6544.625000 72.758 74.4141
6592.049805 73.148 78.4375
6639.818359 72.870 150.7344
6687.933594 71.024 169.0625
6736.396973 70.620 -177.1992
6785.211426 71.140 -52.8828
6834.379883 70.652 77.0703
6883.904785 69.741 108.9688
6933.788574 70.220 87.4961
6984.033691 73.047 82.2031
7034.642578 75.708 165.2578
7085.618652 76.545 -42.0156
7136.963867 75.343 -143.8906
7188.681152 75.389 -173.7656
7240.773438 76.305 160.4453
7293.243164 76.205 134.6641
7346.092773 76.632 104.7070
7399.325684 77.054 44.6289
7452.944336 76.273 -64.8516
7506.951172 75.730 140.7305
7561.350098 76.071 -86.7695
7616.142578 76.224 -57.9453
7671.332031 76.998 -35.5586
7726.921875 77.030 88.8398
7782.914551 75.653 -99.8516
7839.312500 74.002 -40.1172
7896.119629 73.253 -96.3750
7953.337891 73.544 -170.8281
8010.971191 74.209 124.9297
8069.021973 75.280 164.2383
8127.493164 77.138 7.9766
8186.388672 78.638 -62.2188
8245.710938 78.818 -115.8711
8305.461914 78.289 166.8047
8365.647461 77.025 -14.6133
8426.267578 74.944 17.1133
8487.328125 71.917 -16.9531
8548.831055 69.909 -111.5664
8610.779297 71.080 156.6836
8673.176758 72.873 -156.1328
8736.026367 72.994 -55.0352
8799.331055 72.760 24.4180
8863.094727 73.402 163.3789
8927.320312 74.356 17.5117
8992.010742 74.611 -113.2734
9057.170898 74.842 104.9297
9122.802734 75.387 -48.7461
9188.910156 75.866 121.4688
9255.497070 75.267 -142.4844
9322.566406 73.620 -75.4062
9390.121094 72.955 46.3477
9458.166016 72.671 -141.5508
9526.704102 71.983 -24.7656
9595.738281 71.183 -69.2305
9665.273438 71.676 168.4141
9735.311523 72.241 66.5273
9805.857422 72.736 24.7500
9876.915039 72.970 135.0234
9948.487305 72.918 -130.6719
10020.578125 72.860 125.0977
10093.191406 73.927 -59.6016
10166.331055 73.222 -147.2930
10240.000000 71.236 -153.2422
10314.203125 70.263 -130.7812
10388.944336 69.680 -35.4844
10464.226562 68.968 24.1016
10540.054688 69.183 12.2891
10616.432617 69.425 66.3203
10693.363281 69.870 -154.2031
10770.852539 70.193 8.4453
10848.902344 69.405 179.0742
10927.517578 67.655 -7.2812
11006.703125 66.188 -165.5508
11086.461914 66.649 -18.2500
11166.798828 68.873 40.2305
11247.718750 70.209 76.4336
11329.223633 70.073 145.9492
11411.320312 69.431 156.5898
11494.011719 68.947 15.0898
11577.301758 68.145 158.3672
11661.195312 67.303 -45.8008
11745.697266 67.594 105.9453
11830.811523 69.200 -44.4062
11916.542969 69.902 -73.2695
12002.894531 69.015 -29.3320
12089.873047 68.487 -16.5938
12177.480469 69.327 14.2344
12265.723633 69.719 162.0703
12354.606445 69.382 19.5391
12444.132812 69.061 163.5469
12534.308594 69.353 -115.5117
12625.136719 69.394 49.3359
12716.624023 68.467 -89.6289
12808.773438 67.159 1.4844
12901.591797 65.708 -101.4023
12995.082031 66.067 107.7578
13089.250000 68.823 -23.2344
13184.099609 70.176 -97.3750
13279.636719 69.822 -59.4297
13375.867188 69.137 -18.9688
13472.793945 69.028 -78.4219
13570.422852 68.813 -172.5547
13668.759766 68.033 140.5703
13767.809570 67.345 -152.2031
13867.577148 67.502 -50.6641
13968.067383 67.506 -69.0469
14069.285156 65.813 132.1641
14171.237305 64.152 3.1719
14273.927734 64.085 1.0312
14377.362305 64.857 85.9531
14481.546875 65.150 -179.4062
14586.486328 64.832 -152.7812
14692.185547 65.143 48.0156
14798.651367 66.679 148.3906
14905.888672 67.528 -78.5781
15013.902344 68.128 62.3516
15122.700195 69.668 116.0938
15232.285156 69.631 152.3516
15342.664062 68.399 -102.3047
15453.843750 67.959 92.6016
15565.829102 66.678 -81.8828
15678.625000 65.346 108.0312
15792.239258 65.050 75.1406
15906.675781 65.649 141.8125
16021.942383 65.420 -59.6562
16138.043945 63.806 -163.6250
16254.986328 62.488 80.1172
16372.777344 62.127 -121.1484
16491.421875 61.644 -8.7109
16610.923828 60.920 -4.2188
16731.294922 61.468 -153.1250
16852.535156 63.434 45.2656
16974.656250 65.833 4.2656
17097.662109 66.585 51.2188
17221.558594 65.391 13.8125
17346.353516 63.761 164.2578
17472.052734 63.478 -155.7969
17598.662109 65.794 -43.6641
17726.189453 68.183 166.2891
17854.640625 69.157 61.3125
17984.021484 69.861 -123.3047
18114.341797 71.161 64.3516
18245.605469 72.140 21.6406
18377.820312 73.456 -2.1484
18510.994141 74.164 -102.2188
18645.132812 73.560 101.3203
18780.242188 71.791 -106.7500
18916.332031 70.672 19.4531
19053.408203 69.615 -80.5938
19191.476562 69.130 -56.2188
19330.546875 69.317 9.9844
19470.623047 68.389 73.8203
19611.714844 66.963 109.1250
19753.830078 66.080 97.8672
19896.974609 65.712 131.1172
